#K-Path(1/A) Energy-Level(eV)
# NKPTS & NBANDS:  50  12
# Band-Index:    1
   0.00000     -9.341783
   0.19312     -9.191838
   0.38624     -8.747759
   0.57936     -8.030959
   0.77248     -7.092672
   0.96560     -6.068001
   1.15872     -5.284144
   1.35185     -4.978701
   1.54497     -4.922250
   1.73809     -4.918534
   1.73809     -4.918534
   1.83465     -4.903785
   1.93121     -4.843780
   2.02777     -4.763568
   2.12433     -4.648560
   2.22089     -4.527097
   2.31745     -4.401496
   2.41401     -4.288302
   2.51057     -4.209595
   2.60713     -4.180642
   2.60713     -4.180642
   2.74369     -4.152664
   2.88024     -4.066061
   3.01680     -3.954602
   3.15336     -4.199399
   3.28992     -4.459031
   3.42647     -4.711787
   3.56303     -4.916275
   3.69959     -5.049238
   3.83614     -5.094912
   3.83614     -5.094912
   4.00339     -5.158957
   4.17064     -5.411456
   4.33789     -5.980211
   4.50513     -6.789811
   4.67238     -7.629894
   4.83963     -8.353049
   5.00688     -8.895445
   5.17412     -9.229266
   5.34137     -9.341783
   5.34137     -9.341783
   5.54621     -9.173220
   5.75104     -8.675476
   5.95588     -7.875795
   6.16071     -6.835483
   6.36555     -5.687237
   6.57039     -4.698144
   6.77522     -4.142827
   6.98006     -4.048723
   7.18489     -4.315655
 
# Band-Index:    2
   7.18489     -4.079649
   6.98006     -3.910811
   6.77522     -3.637105
   6.57039     -3.557782
   6.36555     -3.525274
   6.16071     -3.457123
   5.95588     -3.340273
   5.75104     -3.198890
   5.54621     -3.103571
   5.34137     -3.067937
   5.34137     -3.067937
   5.17412     -3.089229
   5.00688     -3.146295
   4.83963     -3.238228
   4.67238     -3.282566
   4.50513     -3.266792
   4.33789     -3.055544
   4.17064     -3.025269
   4.00339     -3.075983
   3.83614     -3.090980
   3.83614     -3.090980
   3.69959     -3.117921
   3.56303     -3.207677
   3.42647     -3.351840
   3.28992     -3.536500
   3.15336     -3.758846
   3.01680     -3.938292
   2.88024     -3.744773
   2.74369     -3.615930
   2.60713     -3.567858
   2.60713     -3.567858
   2.51057     -3.749680
   2.41401     -3.911394
   2.31745     -4.048593
   2.22089     -4.161543
   2.12433     -4.250643
   2.02777     -4.345897
   1.93121     -4.391778
   1.83465     -4.442597
   1.73809     -4.421599
   1.73809     -4.421599
   1.54497     -4.415223
   1.35185     -4.304800
   1.15872     -4.081248
   0.96560     -3.869160
   0.77248     -3.636910
   0.57936     -3.421203
   0.38624     -3.231129
   0.19312     -3.110275
   0.00000     -3.067937
 
# Band-Index:    3
   0.00000     -3.067935
   0.19312     -3.031471
   0.38624     -2.910090
   0.57936     -2.762943
   0.77248     -2.665594
   0.96560     -2.611221
   1.15872     -2.106573
   1.35185     -1.802987
   1.54497     -1.757224
   1.73809     -1.741240
   1.73809     -1.741240
   1.83465     -1.753872
   1.93121     -1.801438
   2.02777     -2.046017
   2.12433     -2.316925
   2.22089     -2.593181
   2.31745     -2.860028
   2.41401     -3.109876
   2.51057     -3.358357
   2.60713     -3.567854
   2.60713     -3.567854
   2.74369     -3.544064
   2.88024     -3.465061
   3.01680     -3.365412
   3.15336     -3.211996
   3.28992     -2.998302
   3.42647     -2.864691
   3.56303     -2.988548
   3.69959     -3.064377
   3.83614     -3.090980
   3.83614     -3.090980
   4.00339     -3.075983
   4.17064     -3.025269
   4.33789     -2.998527
   4.50513     -2.923327
   4.67238     -2.899673
   4.83963     -2.922368
   5.00688     -2.990381
   5.17412     -3.046343
   5.34137     -3.067935
   5.34137     -3.067935
   5.54621     -3.038560
   5.75104     -2.952932
   5.95588     -2.890643
   6.16071     -2.960241
   6.36555     -3.099330
   6.57039     -3.349487
   6.77522     -3.432777
   6.98006     -3.187909
   7.18489     -2.806919
 
# Band-Index:    4
   7.18489     -2.117927
   6.98006     -2.310578
   6.77522     -2.481994
   6.57039     -2.582687
   6.36555     -2.561397
   6.16071     -2.637725
   5.95588     -2.811497
   5.75104     -2.930742
   5.54621     -3.028913
   5.34137     -3.067935
   5.34137     -3.067935
   5.17412     -3.046343
   5.00688     -2.990381
   4.83963     -2.922368
   4.67238     -2.899673
   4.50513     -2.923327
   4.33789     -2.998527
   4.17064     -2.430575
   4.00339     -1.734289
   3.83614     -1.701590
   3.83614     -1.701590
   3.69959     -1.991947
   3.56303     -2.405541
   3.42647     -2.739766
   3.28992     -2.704689
   3.15336     -2.529200
   3.01680     -2.411488
   2.88024     -2.336707
   2.74369     -2.321621
   2.60713     -2.321107
   2.60713     -2.321107
   2.51057     -2.273681
   2.41401     -2.204022
   2.31745     -2.112691
   2.22089     -2.011621
   2.12433     -1.914564
   2.02777     -1.840366
   1.93121     -1.778291
   1.83465     -1.627848
   1.73809     -1.549372
   1.73809     -1.549372
   1.54497     -1.619727
   1.35185     -1.782689
   1.15872     -1.998839
   0.96560     -2.242406
   0.77248     -2.482449
   0.57936     -2.762941
   0.38624     -2.910088
   0.19312     -3.031469
   0.00000     -3.067935
 
# Band-Index:    5
   0.00000     -2.279104
   0.19312     -2.316659
   0.38624     -2.391287
   0.57936     -2.554971
   0.77248     -2.482448
   0.96560     -2.242405
   1.15872     -1.998839
   1.35185     -1.782689
   1.54497     -1.619727
   1.73809     -1.549372
   1.73809     -1.549372
   1.83465     -1.561551
   1.93121     -1.561836
   2.02777     -1.563091
   2.12433     -1.559489
   2.22089     -1.560718
   2.31745     -1.561625
   2.41401     -1.562239
   2.51057     -1.562594
   2.60713     -1.562712
   2.60713     -1.562712
   2.74369     -1.593415
   2.88024     -1.664597
   3.01680     -1.728350
   3.15336     -1.748545
   3.28992     -1.740199
   3.42647     -1.731729
   3.56303     -1.712903
   3.69959     -1.704981
   3.83614     -1.701590
   3.83614     -1.701590
   4.00339     -1.734289
   4.17064     -1.814309
   4.33789     -1.959606
   4.50513     -2.084098
   4.67238     -2.219062
   4.83963     -2.279252
   5.00688     -2.300785
   5.17412     -2.286627
   5.34137     -2.279104
   5.34137     -2.279104
   5.54621     -2.305898
   5.75104     -2.370735
   5.95588     -2.453013
   6.16071     -2.534348
   6.36555     -2.437936
   6.57039     -2.245176
   6.77522     -2.030624
   6.98006     -1.866585
   7.18489     -1.729428
 
# Band-Index:    6
   7.18489      4.321259
   6.98006      3.225768
   6.77522      1.140498
   6.57039     -0.363410
   6.36555     -1.257716
   6.16071     -1.785272
   5.95588     -2.084611
   5.75104     -2.227656
   5.54621     -2.274397
   5.34137     -2.279104
   5.34137     -2.279104
   5.17412     -2.286627
   5.00688     -2.300785
   4.83963     -2.279252
   4.67238     -2.219062
   4.50513     -2.084098
   4.33789     -1.959606
   4.17064     -1.814309
   4.00339     -1.519953
   3.83614     -0.992766
   3.83614     -0.992766
   3.69959     -0.622317
   3.56303      0.033171
   3.42647      0.795483
   3.28992      1.636525
   3.15336      2.552569
   3.01680      3.538557
   2.88024      4.577557
   2.74369      5.599739
   2.60713      6.194529
   2.60713      6.194529
   2.51057      5.430796
   2.41401      4.707171
   2.31745      4.024137
   2.22089      3.389161
   2.12433      2.810837
   2.02777      2.303254
   1.93121      1.891038
   1.83465      1.611761
   1.73809      1.511182
   1.73809      1.511182
   1.54497      0.649876
   1.35185     -0.884453
   1.15872     -1.847525
   0.96560     -1.933393
   0.77248     -2.021066
   0.57936     -2.142309
   0.38624     -2.214464
   0.19312     -2.262804
   0.00000     -2.279104
 
# Band-Index:    7
   0.00000     22.638391
   0.19312     22.131703
   0.38624     21.136113
   0.57936     19.779302
   0.77248     17.941215
   0.96560     16.323122
   1.15872     13.638175
   1.35185     10.690757
   1.54497      8.231566
   1.73809      7.076677
   1.73809      7.076677
   1.83465      7.090066
   1.93121      7.132796
   2.02777      7.204059
   2.12433      7.308850
   2.22089      7.448831
   2.31745      7.628756
   2.41401      7.825240
   2.51057      6.993874
   2.60713      6.194587
   2.60713      6.194587
   2.74369      5.871674
   2.88024      5.294422
   3.01680      4.776286
   3.15336      4.382668
   3.28992      4.105823
   3.42647      3.919342
   3.56303      3.802941
   3.69959      3.739468
   3.83614      3.719443
   3.83614      3.719443
   4.00339      4.527281
   4.17064      6.340364
   4.33789      8.593735
   4.50513     11.106639
   4.67238     13.806614
   4.83963     16.640841
   5.00688     19.524069
   5.17412     21.977254
   5.34137     22.638390
   5.34137     22.638394
   5.54621     21.768205
   5.75104     19.362440
   5.95588     16.736404
   6.16071     14.221689
   6.36555     11.870381
   6.57039      9.698409
   6.77522      7.712437
   6.98006      5.915750
   7.18489      5.717210
 
# Band-Index:    8
   7.18489      7.814489
   6.98006      8.469428
   6.77522      9.483039
   6.57039     10.897787
   6.36555     12.722143
   6.16071     14.924384
   5.95588     17.461444
   5.75104     20.264398
   5.54621     23.195257
   5.34137     25.246527
   5.34137     25.246520
   5.17412     23.886863
   5.00688     23.313788
   4.83963     23.053690
   4.67238     22.709152
   4.50513     22.274003
   4.33789     21.824326
   4.17064     21.450452
   4.00339     21.201312
   3.83614     21.115089
   3.83614     21.115089
   3.69959     20.379373
   3.56303     18.663199
   3.42647     16.825069
   3.28992     15.033259
   3.15336     13.328027
   3.01680     11.724628
   2.88024     10.245422
   2.74369      8.955910
   2.60713      8.272506
   2.60713      8.272506
   2.51057      8.103040
   2.41401      7.850413
   2.31745      8.685029
   2.22089      9.567197
   2.12433     10.461044
   2.02777     11.343707
   1.93121     12.169782
   1.83465     12.822457
   1.73809     13.092139
   1.73809     13.092139
   1.54497     13.311067
   1.35185     13.952965
   1.15872     14.976034
   0.96560     16.323140
   0.77248     17.941233
   0.57936     19.779320
   0.38624     21.784742
   0.19312     23.851578
   0.00000     25.246520
 
# Band-Index:    9
   0.00000     25.246553
   0.19312     23.851598
   0.38624     21.784761
   0.57936     20.146971
   0.77248     19.313131
   0.96560     16.780729
   1.15872     14.976052
   1.35185     13.952983
   1.54497     13.311085
   1.73809     13.092157
   1.73809     13.092157
   1.83465     12.923092
   1.93121     12.480638
   2.02777     11.886164
   2.12433     11.240667
   2.22089     10.601432
   2.31745     10.005030
   2.41401      9.472708
   2.51057      9.028737
   2.60713      8.794088
   2.60713      8.794088
   2.74369      9.322386
   2.88024     10.505719
   3.01680     11.994957
   3.15336     13.677085
   3.28992     15.497678
   3.42647     17.410011
   3.56303     19.346497
   3.69959     21.131869
   3.83614     22.076830
   3.83614     22.076830
   4.00339     22.099207
   4.17064     22.181138
   4.33789     22.351014
   4.50513     22.632200
   4.67238     23.035551
   4.83963     23.565042
   5.00688     24.204405
   5.17412     24.877369
   5.34137     25.246553
   5.34137     25.246555
   5.54621     24.363646
   5.75104     24.571201
   5.95588     25.444668
   6.16071     24.711761
   6.36555     22.778726
   6.57039     20.486561
   6.77522     18.432395
   6.98006     16.644944
   7.18489     15.164081
 
# Band-Index:   10
   7.18489     19.273198
   6.98006     19.830328
   6.77522     20.615702
   6.57039     21.684236
   6.36555     23.062357
   6.16071     25.283788
   5.95588     26.510303
   5.75104     26.190324
   5.54621     25.485409
   5.34137     25.246551
   5.34137     25.246558
   5.17412     24.877371
   5.00688     24.204405
   4.83963     23.565042
   4.67238     23.035551
   4.50513     22.632200
   4.33789     22.351014
   4.17064     22.181138
   4.00339     22.099207
   3.83614     22.076830
   3.83614     22.076830
   3.69959     21.860430
   3.56303     22.066839
   3.42647     22.536968
   3.28992     23.200024
   3.15336     24.033918
   3.01680     25.017873
   2.88024     26.137233
   2.74369     27.349100
   2.60713     28.259496
   2.60713     28.259496
   2.51057     26.655217
   2.41401     25.114995
   2.31745     23.644076
   2.22089     22.247310
   2.12433     20.934385
   2.02777     19.725310
   1.93121     18.668363
   1.83465     17.874759
   1.73809     17.561846
   1.73809     17.561846
   1.54497     17.623434
   1.35185     17.819468
   1.15872     18.157672
   0.96560     18.650322
   0.77248     19.738813
   0.57936     21.831379
   0.38624     23.347462
   0.19312     24.634269
   0.00000     25.246553
 
# Band-Index:   11
   0.00000     27.735515
   0.19312     28.562109
   0.38624     28.977201
   0.57936     25.514698
   0.77248     22.892088
   0.96560     21.554443
   1.15872     20.867571
   1.35185     20.484639
   1.54497     20.290809
   1.73809     20.231913
   1.73809     20.231913
   1.83465     20.482229
   1.93121     21.170348
   2.02777     22.170964
   2.12433     23.380184
   2.22089     24.725151
   2.31745     26.150049
   2.41401     27.582804
   2.51057     28.853929
   2.60713     28.259532
   2.60713     28.259532
   2.74369     28.186459
   2.88024     27.994092
   3.01680     27.733507
   3.15336     27.448554
   3.28992     27.146272
   3.42647     26.803023
   3.56303     26.336430
   3.69959     25.632730
   3.83614     25.076169
   3.83614     25.076169
   4.00339     25.270441
   4.17064     25.833214
   4.33789     26.707712
   4.50513     27.854871
   4.67238     29.174011
   4.83963     29.583590
   5.00688     29.368566
   5.17412     28.265694
   5.34137     27.735510
   5.34137     27.735513
   5.54621     27.821565
   5.75104     28.083958
   5.95588     27.272628
   6.16071     26.710383
   6.36555     28.305858
   6.57039     30.198606
   6.77522     32.379012
   6.98006     33.354994
   7.18489     28.908884
 
# Band-Index:   12
   7.18489     36.347988
   6.98006     34.345547
   6.77522     32.631795
   6.57039     31.212264
   6.36555     30.074456
   6.16071     28.890973
   5.95588     28.093051
   5.75104     28.103445
   5.54621     28.656758
   5.34137     27.735522
   5.34137     27.735530
   5.17412     28.265746
   5.00688     29.375687
   4.83963     30.142078
   4.67238     29.194155
   4.50513     27.854871
   4.33789     26.707712
   4.17064     25.833214
   4.00339     25.270442
   3.83614     25.076169
   3.83614     25.076169
   3.69959     26.246016
   3.56303     28.403199
   3.42647     30.839714
   3.28992     33.449155
   3.15336     35.592203
   3.01680     33.704147
   2.88024     32.024453
   2.74369     30.476880
   2.60713     29.455314
   2.60713     29.455313
   2.51057     29.929443
   2.41401     31.663049
   2.31745     33.450555
   2.22089     35.284285
   2.12433     37.143814
   2.02777     38.977291
   1.93121     40.645250
   1.83465     41.807754
   1.73809     42.192569
   1.73809     42.192697
   1.54497     41.985264
   1.35185     41.496728
   1.15872     40.472589
   0.96560     38.188811
   0.77248     36.017673
   0.57936     33.095258
   0.38624     30.514865
   0.19312     29.204904
   0.00000     27.735529
